# telescope = 2.7M HARLAN J. SMITH (HJS) TELESCOPE
# instrument = "6 FOOT CAMERA" COUDE SPECTROMETER (6FTCS)
# observatory = MCDONALD OBSERVATORY, TEXAS
# reference = HATZES ET AL. 2003 (APJ, 599, 1383)
# bibcode = 2003APJ...599.1383H
# source = http://exoplanetarchive.ipac.caltech.edu//data/ExoData/0116/0116727/data/UID_0116727_RVC_009.tbl
# value_units = M/S
# nexsci_url = http://exoplanetarchive.ipac.caltech.edu/cgi-bin/ExoOverview/nph-ExoOverview?objname=gam%20Cep%20b&label&aliases&exo&orb&ppar&tran&disc&ospar&ts&type=CONFIRMED_PLANET
  2448177.8696             35.39                         33.09
  2448177.8773             29.94                         23.82
  2448200.8311             27.72                         13.42
  2448224.7008             53.95                         11.53
  2448259.6020             42.85                         13.09
  2448484.8393            -37.21                         14.00
  2448524.8304            -93.10                         17.55
  2448555.7939           -105.15                         12.07
  2448555.8038           -116.01                          9.08
  2448607.7638           -138.18                         13.85
  2448644.6465           -137.70                         16.41
  2448824.9547           -204.50                         20.26
  2448824.9609           -192.72                         24.48
  2448852.9733           -209.83                         20.32
  2448853.9149           -212.64                         18.76
  2448882.8273           -205.27                         12.96
  2448901.7912           -225.14                         10.72
  2448902.7764           -235.24                         18.78
  2448943.7443           -246.38                         15.91
  2448971.6571           -238.61                         18.23
  2448973.6189           -205.78                         19.50
  2449020.6401           -218.97                         13.72
  2449220.9732           -167.29                         33.39
  2449258.8484           -132.89                         17.28
  2449286.7903           -181.63                         15.92
  2449352.6804           -119.99                         18.05
  2449380.5871            -97.26                         19.21
  2449400.5656           -116.95                         17.10
  2449587.8845            -68.05                         16.10
  2449587.8907            -61.08                         17.55
  2449615.8899            -72.07                         14.53
  2449647.8128            -73.35                         10.00
  2449670.7118            -28.25                          8.18
  2449703.6783            -35.81                          12.4
  2449734.5877            -28.56                         15.26
  2449769.5639            -22.20                         11.46
  2449917.9326             87.22                         12.25
  2449946.9247            103.39                         36.52
  2449963.8567            135.27                         20.53
  2449993.8304            127.05                         16.89
  2450093.6243            188.90                          8.42
  2450124.6006            222.54                          8.77
  2450292.8908            351.62                         13.65
  2450354.8007            389.66                          9.85
  2450409.7363            394.82                         14.13
  2450480.6530            420.67                         15.16
  2450700.8995            556.24                         16.33
  2450768.8008            575.22                         14.58
  2450834.6049            650.27                         12.11
